#Wavelength(Ang.A)  F_lambda(10^-12ergs/s/cm^2/A)
1150.58   5.796
1152.26   7.228
1153.94   9.029
1155.61   10.32
1157.29   10.06
1158.97   10.62
1160.64   10.79
1162.32   10.68
1163.99   10.93
1165.67   10.38
1167.35   10.74
1169.02   10.72
1170.70   9.886
1172.38   9.772
1174.05   10.09
1175.73   9.881
1177.41   10.38
1179.08   10.13
1180.76   10.28
1182.43   10.37
1184.11   10.13
1185.79   9.553
1187.46   8.976
1189.14   8.055
1190.82   7.564
1192.49   6.998
1194.17   6.513
1195.85   6.087
1197.52   5.558
1199.20   5.062
1200.87   4.457
1202.55   3.702
1204.23   2.920
1205.90   2.159
1207.58   1.436
1209.26   0.9592
1210.93   0.5740
1212.61   0.3838
1214.29   0.2746
1215.96   0.2199
1217.64   0.3072
1219.32   0.5340
1220.99   0.9400
1222.67   1.494
1224.34   2.231
1226.02   3.129
1227.70   4.057
1229.37   4.942
1231.05   6.103
1232.73   7.215
1234.40   8.221
1236.08   9.224
1237.76   9.855
1239.43   10.62
1241.11   11.34
1242.78   11.61
1244.46   11.73
1246.14   11.87
1247.81   11.97
1249.49   12.27
1251.17   12.17
1252.84   12.22
1254.52   12.09
1256.20   11.89
1257.87   11.67
1259.55   11.46
1261.22   11.14
1262.90   11.28
1264.58   11.32
1266.25   11.59
1267.93   11.97
1269.61   12.43
1271.28   12.42
1272.96   12.79
1274.64   13.07
1276.31   13.19
1277.99   13.49
1279.67   13.66
1281.34   13.94
1283.02   14.46
1284.69   14.53
1286.37   14.26
1288.05   14.46
1289.72   14.23
1291.40   14.10
1293.08   13.77
1294.75   13.31
1296.43   13.14
1298.11   12.67
1299.78   11.83
1301.46   11.31
1303.13   11.28
1304.81   10.98
1306.49   11.15
1308.16   11.45
1309.84   12.39
1311.52   13.55
1313.19   14.48
1314.87   14.65
1316.55   15.02
1318.22   15.26
1319.90   15.36
1321.57   15.24
1323.25   15.06
1324.93   14.67
1326.60   14.80
1328.28   14.55
1329.96   13.93
1331.63   13.40
1333.31   13.24
1334.99   13.19
1336.66   13.71
1338.34   13.72
1340.01   14.59
1341.69   15.18
1343.37   15.92
1345.04   16.00
1346.72   15.63
1348.40   15.43
1350.07   15.55
1351.75   15.56
1353.43   15.59
1355.10   15.15
1356.78   15.11
1358.46   15.46
1360.13   15.37
1361.81   15.19
1363.48   14.90
1365.16   14.86
1366.84   15.00
1368.51   15.18
1370.19   15.31
1371.87   15.50
1373.54   15.48
1375.22   15.47
1376.90   15.74
1378.57   15.74
1380.25   15.75
1381.92   15.36
1383.60   15.00
1385.28   15.01
1386.95   14.69
1388.63   14.26
1390.31   14.05
1391.98   13.99
1393.66   14.32
1395.34   14.55
1397.01   14.56
1398.69   14.53
1400.36   14.76
1402.04   14.91
1403.72   14.80
1405.39   14.83
1407.07   14.63
1408.75   14.79
1410.42   14.88
1412.10   14.59
1413.78   14.82
1415.45   14.83
1417.13   14.78
1418.81   14.86
1420.48   14.83
1422.16   15.06
1423.83   15.71
1425.51   15.86
1427.19   15.98
1428.86   15.77
1430.54   15.87
1432.22   16.06
1433.89   16.04
1435.57   15.68
1437.25   15.40
1438.92   15.12
1440.60   15.26
1442.27   15.29
1443.95   15.18
1445.63   15.24
1447.30   15.29
1448.98   15.25
1450.66   15.48
1452.33   15.52
1454.01   15.78
1455.69   15.52
1457.36   15.17
1459.04   14.98
1460.71   14.98
1462.39   14.87
1464.07   14.76
1465.74   14.53
1467.42   14.69
1469.10   14.65
1470.77   14.52
1472.45   14.46
1474.13   14.43
1475.80   14.51
1477.48   14.38
1479.16   14.00
1480.83   13.77
1482.51   13.84
1484.18   13.67
1485.86   13.87
1487.54   13.81
1489.21   13.76
1490.89   13.82
1492.57   14.21
1494.24   14.43
1495.92   14.67
1497.60   14.58
1499.27   14.56
1500.95   14.36
1502.62   14.57
1504.30   14.20
1505.98   13.59
1507.65   13.14
1509.33   12.70
1511.01   12.28
1512.68   12.13
1514.36   12.06
1516.04   12.29
1517.71   12.76
1519.39   12.96
1521.06   12.96
1522.74   13.16
1524.42   13.51
1526.09   13.47
1527.77   13.24
1529.45   13.00
1531.12   12.95
1532.80   13.08
1534.48   13.16
1536.15   12.88
1537.83   12.84
1539.50   12.98
1541.18   12.95
1542.86   12.91
1544.53   13.13
1546.21   13.11
1547.89   13.34
1549.56   13.23
1551.24   13.25
1552.92   13.22
1554.59   13.08
1556.27   12.81
1557.95   12.63
1559.62   12.45
1561.30   12.43
1562.97   12.17
1564.65   12.07
1566.33   12.12
1568.00   12.12
1569.68   12.12
1571.36   12.14
1573.03   12.08
1574.71   12.36
1576.39   12.58
1578.06   12.73
1579.74   13.06
1581.41   13.07
1583.09   12.98
1584.77   12.93
1586.44   12.84
1588.12   12.91
1589.80   12.87
1591.47   12.67
1593.15   12.62
1594.83   12.54
1596.50   12.42
1598.18   12.25
1599.85   12.00
1601.53   11.84
1603.21   11.69
1604.88   11.75
1606.56   11.62
1608.24   11.62
1609.91   11.70
1611.59   11.92
1613.27   12.10
1614.94   12.19
1616.62   12.12
1618.30   12.47
1619.97   12.67
1621.65   12.62
1623.32   12.37
1625.00   12.25
1626.68   12.27
1628.35   12.38
1630.03   12.29
1631.71   12.44
1633.38   12.35
1635.06   12.54
1636.74   12.45
1638.41   12.23
1640.09   12.23
1641.76   12.29
1643.44   12.13
1645.12   12.22
1646.79   12.06
1648.47   12.14
1650.15   12.12
1651.82   11.92
1653.50   11.57
1655.18   11.41
1656.85   11.42
1658.53   11.40
1660.20   11.46
1661.88   11.66
1663.56   11.82
1665.23   11.88
1666.91   11.97
1668.59   11.89
1670.26   11.93
1671.94   11.70
1673.62   11.43
1675.29   11.30
1676.97   11.45
1678.65   11.64
1680.32   11.84
1682.00   11.91
1683.67   12.02
1685.35   12.10
1687.03   12.04
1688.70   11.84
1690.38   11.44
1692.06   11.12
1693.73   11.11
1695.41   11.06
1697.09   11.11
1698.76   11.02
1700.44   10.93
1702.11   10.98
1703.79   11.04
1705.47   10.81
1707.14   10.68
1708.82   10.51
1710.50   10.58
1712.17   10.74
1713.85   10.66
1715.53   10.51
1717.20   10.38
1718.88   10.15
1720.55   10.11
1722.23   10.01
1723.91   9.827
1725.58   9.840
1727.26   9.955
1728.94   10.14
1730.61   10.45
1732.29   10.59
1733.97   10.66
1735.64   10.66
1737.32   10.60
1738.99   10.59
1740.67   10.55
1742.35   10.31
1744.02   10.18
1745.70   10.17
1747.38   10.22
1749.05   10.30
1750.73   10.38
1752.41   10.36
1754.08   10.53
1755.76   10.48
1757.44   10.42
1759.11   10.46
1760.79   10.44
1762.46   10.34
1764.14   10.27
1765.82   10.03
1767.49   9.952
1769.17   9.776
1770.85   9.673
1772.52   9.606
1774.20   9.568
1775.88   9.581
1777.55   9.821
1779.23   10.04
1780.90   10.10
1782.58   10.10
1784.26   10.11
1785.93   10.15
1787.61   10.14
1789.29   10.11
1790.96   10.09
1792.64   10.17
1794.32   10.26
1795.99   10.33
1797.67   10.30
1799.34   10.17
1801.02   10.02
1802.70   9.895
1804.37   9.875
1806.05   9.743
1807.73   9.611
1809.40   9.521
1811.08   9.551
1812.76   9.505
1814.43   9.382
1816.11   9.271
1817.79   9.241
1819.46   9.223
1821.14   9.158
1822.81   9.192
1824.49   9.283
1826.17   9.326
1827.84   9.338
1829.52   9.348
1831.20   9.275
1832.87   9.279
1834.55   9.168
1836.23   9.049
1837.90   8.986
1839.58   8.877
1841.25   8.745
1842.93   8.661
1844.61   8.500
1846.28   8.375
1847.96   8.223
1849.64   8.053
1851.31   8.011
1852.99   7.922
1854.67   7.936
1856.34   8.020
1858.02   8.012
1859.69   8.047
1861.37   8.142
1863.05   8.121
1864.72   8.127
1866.40   8.077
1868.08   8.022
1869.75   8.008
1871.43   7.970
1873.11   7.906
1874.78   7.871
1876.46   7.863
1878.14   7.834
1879.81   7.799
1881.49   7.809
1883.16   7.796
1884.84   7.770
1886.52   7.769
1888.19   7.768
1889.87   7.739
1891.55   7.703
1893.22   7.645
1894.90   7.587
1896.58   7.596
1898.25   7.611
1899.93   7.614
1901.60   7.619
1903.28   7.611
1904.96   7.598
1906.63   7.602
1908.31   7.583
1909.99   7.507
1911.66   7.436
1913.34   7.444
1915.02   7.465
1916.69   7.507
1918.37   7.526
1920.04   7.482
1921.72   7.443
1923.40   7.339
1925.07   7.173
1926.75   7.049
1928.43   6.957
1931.07   6.584
1933.73   6.866
1936.40   6.802
1939.06   6.803
1941.72   6.998
1944.38   7.151
1947.05   7.156
1949.71   6.962
1952.37   6.750
1955.04   6.801
1957.70   6.712
1960.36   6.742
1963.02   6.523
1965.69   6.270
1968.35   6.196
1971.01   5.972
1973.68   5.775
1976.34   5.424
1979.00   5.299
1981.66   4.993
1984.33   5.397
1986.99   5.284
1989.65   5.222
1992.31   5.125
1994.98   5.310
1997.64   5.217
2000.30   5.121
2002.97   4.999
2005.63   5.019
2008.29   5.148
2010.95   5.195
2013.62   5.407
2016.28   5.121
2018.94   5.193
2021.61   4.889
2024.27   4.894
2026.93   4.907
2029.59   4.872
2032.26   4.601
2034.92   4.745
2037.58   4.683
2040.25   4.901
2042.91   4.843
2045.57   4.657
2048.23   4.744
2050.90   4.652
2053.56   4.512
2056.22   4.362
2058.88   4.099
2061.55   3.948
2064.21   3.826
2066.87   3.714
2069.54   3.712
2072.20   3.808
2074.86   3.863
2077.52   3.818
2080.19   3.971
2082.85   3.930
2085.51   3.961
2088.18   3.956
2090.84   3.806
2093.50   3.739
2096.16   3.681
2098.83   3.594
2101.49   3.735
2104.15   3.624
2106.82   3.544
2109.48   3.608
2112.14   3.618
2114.80   3.575
2117.47   3.601
2120.13   3.445
2122.79   3.301
2125.45   3.420
2128.12   3.385
2130.78   3.256
2133.44   3.273
2136.11   3.161
2138.77   3.207
2141.43   3.310
2144.09   3.144
2146.76   3.104
2149.42   3.203
2152.08   3.142
2154.75   3.126
2157.41   3.020
2160.07   2.923
2162.73   2.903
2165.40   2.878
2168.06   2.812
2170.72   2.801
2173.39   2.848
2176.05   2.915
2178.71   2.892
2181.37   2.920
2184.04   2.877
2186.70   2.848
2189.36   2.897
2192.02   2.942
2194.69   2.890
2197.35   2.867
2200.01   2.794
2202.68   2.801
2205.34   2.871
2208.00   2.827
2210.66   2.674
2213.33   2.728
2215.99   2.807
2218.65   2.843
2221.32   2.928
2223.98   2.867
2226.64   2.868
2229.30   2.832
2231.97   2.898
2234.63   2.816
2237.29   2.825
2239.96   2.862
2242.62   2.845
2245.28   2.896
2247.94   3.039
2250.61   2.945
2253.27   2.963
2255.93   2.997
2258.59   2.947
2261.26   3.045
2263.92   3.019
2266.58   3.101
2269.25   3.092
2271.91   3.133
2274.57   3.176
2277.23   3.241
2279.90   3.355
2282.56   3.390
2285.22   3.347
2287.89   3.397
2290.55   3.478
2293.21   3.477
2295.87   3.453
2298.54   3.410
2301.20   3.433
2303.86   3.462
2306.53   3.555
2309.19   3.565
2311.85   3.557
2314.51   3.664
2317.18   3.590
2319.84   3.632
2322.50   3.604
2325.16   3.578
2327.83   3.612
2330.49   3.734
2333.15   3.615
2335.82   3.624
2338.48   3.507
2341.14   3.576
2343.80   3.658
2346.47   3.674
2349.13   3.591
2351.79   3.726
2354.46   3.735
2357.12   3.956
2359.78   3.955
2362.44   3.858
2365.11   3.944
2367.77   3.956
2370.43   3.898
2373.09   3.923
2375.76   3.902
2378.42   3.919
2381.08   3.960
2383.75   3.941
2386.41   3.969
2389.07   4.149
2391.73   4.285
2394.40   4.294
2397.06   4.283
2399.72   4.395
2402.39   4.571
2405.05   4.638
2407.71   4.469
2410.37   4.535
2413.04   4.694
2415.70   4.788
2418.36   4.875
2421.03   4.674
2423.69   4.793
2426.35   4.861
2429.01   4.941
2431.68   4.843
2434.34   4.871
2437.00   4.944
2439.67   4.792
2442.33   4.812
2444.99   4.730
2447.65   4.537
2450.32   4.232
2452.98   4.296
2455.64   4.183
2458.30   4.475
2460.97   4.298
2463.63   4.217
2466.29   4.455
2468.96   4.577
2471.62   4.225
2474.28   3.655
2476.94   3.429
2479.61   3.588
2482.27   3.753
2484.93   3.333
2487.60   3.434
2490.26   3.829
2492.92   4.132
2495.58   4.097
2498.25   3.368
2500.91   3.215
2503.57   3.837
2506.24   3.977
2508.90   3.812
2511.56   4.121
2514.22   4.186
2516.89   4.518
2519.55   4.681
2522.21   4.146
2524.87   4.016
2527.54   4.005
2530.20   3.752
2532.86   3.993
2535.53   4.758
2538.19   4.479
2540.85   4.479
2543.51   4.372
2546.18   4.237
2548.84   4.909
2551.50   4.580
2554.17   3.801
2556.83   3.538
2559.49   3.443
2562.15   3.300
2564.82   3.197
2567.48   2.498
2570.14   2.622
2572.80   2.359
2575.47   2.856
2578.13   2.496
2580.79   2.150
2583.46   2.263
2586.12   2.410
2588.78   2.361
2591.44   2.802
2594.11   2.253
2596.77   2.724
2599.43   3.149
2602.10   3.138
2604.76   2.979
2607.42   2.961
2610.08   3.441
2612.75   3.810
2615.41   3.357
2618.07   2.934
2620.74   2.768
2623.40   2.719
2626.06   2.581
2628.72   1.996
2631.39   1.633
2634.05   1.964
2636.71   2.294
2639.38   2.040
2642.04   2.022
2644.70   2.088
2647.36   2.067
2650.03   2.444
2652.69   2.109
2655.35   1.782
2658.01   2.039
2660.68   2.118
2663.34   2.071
2666.00   2.006
2668.67   1.955
2671.33   2.273
2673.99   2.687
2676.65   3.026
2679.32   2.910
2681.98   2.844
2684.64   2.862
2687.31   2.869
2689.97   2.972
2692.63   2.608
2695.29   1.987
2697.96   1.706
2700.62   1.772
2703.28   1.755
2705.94   1.772
2708.61   1.662
2711.27   1.976
2713.93   2.372
2716.60   2.653
2719.26   2.311
2721.92   2.679
2724.58   2.559
2727.25   2.563
2729.91   2.524
2732.57   2.448
2735.24   2.442
2737.90   2.704
2740.56   2.355
2743.22   2.171
2745.89   2.106
2748.55   2.065
2751.21   2.023
2753.88   2.015
2756.54   2.045
2759.20   2.002
2761.86   2.195
2764.53   1.962
2767.19   2.039
2769.85   2.039
2772.51   2.046
2775.18   2.043
2777.84   2.106
2780.50   2.142
2783.17   2.377
2785.83   2.062
2788.49   1.785
2791.15   1.716
2793.82   1.441
2796.48   1.364
2799.14   1.353
2801.81   1.387
2804.47   1.670
2807.13   1.937
2809.79   1.979
2812.46   2.240
2815.12   2.012
2817.78   2.173
2820.45   2.097
2823.11   2.040
2825.77   2.011
2828.43   1.949
2831.10   1.901
2833.76   2.121
2836.42   2.005
2839.08   1.820
2841.75   1.884
2844.41   1.924
2847.07   1.959
2849.74   1.918
2852.40   1.879
2855.06   1.786
2857.72   1.981
2860.39   1.943
2863.05   1.860
2865.71   1.865
2868.38   1.942
2871.04   1.970
2873.70   1.986
2876.36   1.982
2879.03   1.930
2881.69   1.956
2884.35   1.748
2887.02   1.679
2889.68   1.713
2892.34   1.702
2895.00   1.627
2897.67   1.584
2900.33   1.548
2902.99   1.709
2905.65   1.689
2908.32   1.615
2910.98   1.580
2913.64   1.697
2916.31   1.720
2918.97   1.753
2921.63   1.756
2924.29   1.763
2926.96   1.602
2929.62   1.583
2932.28   1.525
2934.95   1.447
2937.61   1.419
2940.27   1.397
2942.93   1.403
2945.60   1.563
2948.26   1.600
2950.92   1.590
2953.59   1.689
2956.25   1.728
2958.91   1.764
2961.57   1.772
2964.24   1.917
2966.90   1.982
2969.56   2.002
2972.22   2.023
2974.89   2.036
2977.55   2.051
2980.21   2.126
2982.88   2.080
2985.54   2.099
2988.20   2.609
2990.86   2.611
2993.53   2.720
2996.19   2.824
2998.85   2.809
3001.52   2.817
3004.18   2.841
3006.84   2.446
3009.50   2.924
3012.17   2.899
3014.83   2.926
3017.49   2.800
3020.16   2.901
3022.82   2.993
3025.48   3.076
3028.14   3.135
3030.81   3.524
3033.47   3.553
3036.13   3.796
3038.79   4.102
3041.46   4.016
3044.12   4.211
3046.78   3.474
3049.45   2.947
3052.11   3.198
3054.77   2.996
3057.43   2.697
3060.10   3.065
3062.76   2.892
3065.42   3.283
3068.09   3.560
3070.75   3.687
3073.41   4.340
3076.07   4.449
3078.74   4.530
3081.40   4.598
3084.06   4.613
3086.73   4.605
3089.39   4.336
3092.05   3.995
3094.71   3.992
3097.38   4.066
3100.04   4.363
3102.70   4.441
3105.36   4.505
3108.03   4.563
3110.69   4.659
3113.35   4.652
3116.02   4.479
3118.68   4.230
3121.34   4.483
3124.00   4.616
3126.67   4.845
3129.33   5.017
3131.99   5.096
3134.66   5.092
3137.32   5.123
3139.98   5.006
3142.64   5.036
3145.31   4.917
3147.97   4.871
3150.63   5.010
3153.30   5.022
3155.96   5.139
3158.62   5.199
3161.28   5.209
3163.95   5.125
3166.61   5.084
3169.27   5.004
3171.93   4.954
3174.60   4.930
3177.26   4.863
3179.92   4.784
3182.59   4.871
3185.25   4.843
3187.91   4.827
3190.57   4.868
3193.24   4.821
3195.90   4.788
3198.56   4.857
3201.23   4.881
3203.89   4.870
3206.55   4.859
3209.21   4.818
3211.88   4.839
3214.54   4.786
3217.20   4.695
3219.87   4.637
3222.53   4.622
3225.19   4.633
3227.85   4.666
3230.52   4.647
3233.18   4.697
3235.84   4.731
3238.50   4.701
3240.04   4.642
3242.79   4.672
3245.54   4.812
3248.28   4.507
3251.03   4.505
3253.77   4.648
3256.52   4.546
3259.27   4.849
3262.01   4.687
3264.76   4.313
3267.50   4.285
3270.25   4.567
3273.00   4.685
3275.74   4.709
3278.49   4.658
3281.23   4.752
3283.98   4.630
3286.73   4.574
3289.47   4.588
3292.22   4.724
3294.96   4.484
3297.71   4.493
3300.46   4.666
3303.20   4.557
3305.95   4.671
3308.69   4.681
3311.44   4.437
3314.19   4.553
3316.93   4.614
3319.68   4.598
3322.42   4.577
3325.17   4.531
3327.92   4.566
3330.66   4.580
3333.41   4.740
3336.15   4.708
3338.90   4.603
3341.65   4.528
3344.39   4.551
3347.14   4.559
3349.88   4.640
3352.63   4.514
3355.38   4.579
3358.12   4.524
3360.87   4.553
3363.61   4.644
3366.36   4.555
3369.11   4.555
3371.85   4.649
3374.60   4.497
3377.34   4.384
3380.09   4.400
3382.84   4.547
3385.58   4.825
3388.33   4.544
3391.07   4.417
3393.82   4.446
3396.57   4.560
3399.31   4.388
3402.06   4.433
3404.80   4.380
3407.55   4.566
3410.30   4.521
3413.04   4.399
3415.79   4.410
3418.53   4.551
3421.28   4.500
3424.03   4.388
3426.77   4.327
3429.52   4.386
3432.26   4.422
3435.01   4.324
3437.76   4.369
3440.50   4.289
3443.25   4.383
3445.99   4.374
3448.74   4.509
3451.49   4.320
3454.23   4.531
3456.98   4.489
3459.72   4.316
3462.47   4.373
3465.22   4.336
3467.96   4.275
3470.71   4.353
3473.45   4.565
3476.20   4.414
3478.95   4.460
3481.69   4.443
3484.44   4.413
3487.18   4.347
3489.93   4.312
3492.68   4.305
3495.42   4.326
3498.17   4.362
3500.91   4.286
3503.66   4.245
3506.41   4.231
3509.15   4.275
3511.90   4.496
3514.64   4.437
3517.39   4.417
3520.14   4.358
3522.88   4.411
3525.63   4.191
3528.37   4.238
3531.12   4.278
3533.87   4.300
3536.61   4.321
3539.36   4.390
3542.10   4.344
3544.85   4.312
3547.60   4.256
3550.34   4.300
3553.09   4.201
3555.83   4.167
3558.58   4.179
3561.33   4.076
3564.07   4.309
3566.82   4.272
3569.56   4.116
3572.31   4.216
3575.06   4.211
3577.80   4.190
3580.55   4.217
3583.29   4.257
3586.04   4.141
3588.79   4.151
3591.53   4.331
3594.28   4.242
3597.02   4.095
3599.77   4.195
3602.52   4.130
3605.26   4.132
3608.01   4.147
3610.75   3.999
3613.50   4.118
3616.25   4.065
3618.99   4.138
3621.74   4.201
3624.48   4.201
3627.23   4.046
3629.98   4.074
3632.72   4.120
3635.47   4.064
3638.21   4.075
3640.96   4.081
3643.71   4.161
3646.45   4.147
3649.20   4.101
3651.94   4.259
3654.69   4.164
3657.44   4.060
3660.18   4.078
3662.93   4.123
3665.67   4.151
3668.42   4.097
3671.17   4.108
3673.91   4.118
3676.66   4.112
3679.40   4.149
3682.15   4.133
3684.90   4.153
3687.64   4.060
3690.39   4.089
3693.13   4.041
3695.88   3.944
3698.63   4.066
3701.37   4.018
3704.12   4.054
3706.86   4.021
3709.61   4.029
3712.36   4.235
3715.10   4.230
3717.85   3.894
3720.59   3.759
3723.34   3.992
3726.09   4.329
3728.83   4.331
3731.58   4.049
3734.32   4.046
3737.07   4.507
3739.82   4.885
3742.56   4.864
3745.31   4.278
3748.05   3.894
3750.80   4.170
3753.55   4.869
3756.29   5.299
3759.04   5.495
3761.78   5.283
3764.53   4.790
3767.28   4.183
3770.02   3.919
3772.77   4.601
3775.51   5.350
3778.26   5.883
3781.01   6.118
3783.75   6.146
3786.50   5.971
3789.24   5.398
3791.99   4.679
3794.74   4.067
3797.48   4.016
3800.23   4.541
3802.97   5.288
3805.72   5.954
3808.47   6.274
3811.21   6.422
3813.96   6.450
3816.70   6.306
3819.45   6.059
3822.20   6.068
3824.94   5.840
3827.69   5.293
3830.43   4.542
3833.18   3.992
3835.93   4.183
3838.67   4.906
3841.42   5.626
3844.16   6.176
3846.91   6.571
3849.66   6.731
3852.40   6.726
3855.15   6.777
3857.89   6.810
3860.64   6.824
3863.39   6.818
3866.13   6.834
3868.88   6.616
3871.62   6.494
3874.37   6.425
3877.12   6.088
3879.86   5.569
3882.61   4.901
3885.35   4.199
3888.10   3.990
3890.85   4.402
3893.59   5.089
3896.34   5.762
3899.08   6.311
3901.83   6.578
3904.58   6.799
3907.32   6.831
3910.07   6.876
3912.81   6.913
3915.56   6.955
3918.31   7.011
3921.05   6.877
3923.80   6.752
3926.54   6.787
3929.29   6.823
3932.04   6.705
3934.78   6.775
3937.53   6.870
3940.27   6.865
3943.02   6.845
3945.77   6.835
3948.51   6.748
3951.26   6.598
3954.00   6.345
3956.75   6.071
3959.50   5.694
3962.24   5.045
3964.99   4.304
3967.73   3.838
3970.48   3.951
3973.23   4.571
3975.97   5.229
3978.72   5.678
3981.46   6.043
3984.21   6.253
3986.96   6.414
3989.70   6.464
3992.45   6.536
3995.19   6.588
3997.94   6.636
4000.69   6.548
4003.43   6.500
4006.18   6.506
4008.92   6.529
4011.67   6.641
4014.42   6.699
4017.16   6.608
4019.91   6.441
4022.65   6.165
4025.40   6.083
4028.15   6.227
4030.89   6.467
