#Wavelength(Ang.A)  F_lambda(10^-12ergs/s/cm^2/A)
1150.58   0.09871
1152.26   0.1214
1153.93   0.1604
1155.61   0.1737
1157.29   0.1822
1158.96   0.1830
1160.64   0.1846
1162.31   0.1924
1163.99   0.2044
1165.67   0.1907
1167.34   0.1949
1169.02   0.1895
1170.70   0.1861
1172.37   0.1818
1174.05   0.1649
1175.73   0.1578
1177.40   0.1544
1179.08   0.1635
1180.75   0.1811
1182.43   0.1913
1184.11   0.2020
1185.78   0.2063
1187.46   0.1992
1189.14   0.2122
1190.81   0.2078
1192.49   0.1934
1194.17   0.1875
1195.84   0.1769
1197.52   0.1666
1199.19   0.1581
1200.87   0.1327
1202.55   0.1179
1204.22   0.1023
1205.90   0.08098
1207.58   0.07523
1209.25   0.07457
1210.93   0.07782
1212.60   0.08496
1214.28   0.09210
1215.96   0.09172
1217.63   0.09653
1219.31   0.09751
1220.99   0.1019
1222.66   0.1186
1224.34   0.1378
1226.02   0.1583
1227.69   0.1824
1229.37   0.2097
1231.04   0.2333
1232.72   0.2616
1234.40   0.2781
1236.07   0.2976
1237.75   0.3253
1239.43   0.3474
1241.10   0.3754
1242.78   0.3996
1244.46   0.4137
1246.13   0.4253
1247.81   0.4321
1249.48   0.4359
1251.16   0.4483
1252.84   0.4505
1254.51   0.4497
1256.19   0.4431
1257.87   0.4337
1259.54   0.4286
1261.22   0.4254
1262.89   0.4155
1264.57   0.4138
1266.25   0.4223
1267.92   0.4448
1269.60   0.4619
1271.28   0.4781
1272.95   0.4843
1274.63   0.4913
1276.31   0.5071
1277.98   0.5209
1279.66   0.5363
1281.33   0.5558
1283.01   0.5717
1284.69   0.5834
1286.36   0.5945
1288.04   0.5872
1289.72   0.5783
1291.39   0.5628
1293.07   0.5436
1294.75   0.5160
1296.42   0.4985
1298.10   0.4774
1299.77   0.4641
1301.45   0.4589
1303.13   0.4528
1304.80   0.4612
1306.48   0.4752
1308.16   0.5049
1309.83   0.5407
1311.51   0.5784
1313.19   0.6260
1314.86   0.6644
1316.54   0.7076
1318.21   0.7404
1319.89   0.7601
1321.57   0.7717
1323.24   0.7844
1324.92   0.7825
1326.60   0.7792
1328.27   0.7598
1329.95   0.7330
1331.62   0.7029
1333.30   0.6946
1334.98   0.7066
1336.65   0.7104
1338.33   0.7172
1340.01   0.7359
1341.68   0.7821
1343.36   0.8363
1345.04   0.8661
1346.71   0.8705
1348.39   0.8963
1350.06   0.9396
1351.74   0.9664
1353.42   0.9983
1355.09   0.9982
1356.77   0.9969
1358.45   0.9983
1360.12   0.9755
1361.80   0.9545
1363.48   0.9338
1365.15   0.9155
1366.83   0.9254
1368.50   0.9375
1370.18   0.9499
1371.86   0.9685
1373.53   0.9753
1375.21   0.9898
1376.89   0.9788
1378.56   0.9791
1380.24   0.9799
1381.91   0.9849
1383.59   0.9959
1385.27   1.012
1386.94   1.025
1388.62   1.033
1390.30   1.012
1391.97   1.014
1393.65   1.038
1395.33   1.040
1397.00   1.030
1398.68   1.037
1400.35   1.050
1402.03   1.087
1403.71   1.104
1405.38   1.093
1407.06   1.089
1408.74   1.099
1410.41   1.105
1412.09   1.103
1413.77   1.083
1415.44   1.080
1417.12   1.085
1418.79   1.100
1420.47   1.123
1422.15   1.140
1423.82   1.170
1425.50   1.208
1427.18   1.239
1428.85   1.248
1430.53   1.250
1432.20   1.255
1433.88   1.255
1435.56   1.266
1437.23   1.284
1438.91   1.292
1440.59   1.291
1442.26   1.325
1443.94   1.335
1445.62   1.355
1447.29   1.374
1448.97   1.400
1450.64   1.430
1452.32   1.463
1454.00   1.478
1455.67   1.494
1457.35   1.509
1459.03   1.525
1460.70   1.524
1462.38   1.509
1464.06   1.509
1465.73   1.515
1467.41   1.516
1469.08   1.497
1470.76   1.464
1472.44   1.437
1474.11   1.428
1475.79   1.437
1477.47   1.432
1479.14   1.417
1480.82   1.409
1482.50   1.412
1484.17   1.431
1485.85   1.443
1487.52   1.438
1489.20   1.444
1490.88   1.468
1492.55   1.484
1494.23   1.497
1495.91   1.501
1497.58   1.484
1499.26   1.464
1500.93   1.440
1502.61   1.439
1504.29   1.440
1505.96   1.434
1507.64   1.401
1509.32   1.409
1510.99   1.401
1512.67   1.400
1514.35   1.384
1516.02   1.388
1517.70   1.417
1519.37   1.436
1521.05   1.460
1522.73   1.489
1524.40   1.492
1526.08   1.503
1527.76   1.508
1529.43   1.477
1531.11   1.479
1532.79   1.455
1534.46   1.456
1536.14   1.478
1537.81   1.477
1539.49   1.490
1541.17   1.491
1542.84   1.498
1544.52   1.503
1546.20   1.527
1547.87   1.529
1549.55   1.533
1551.22   1.538
1552.90   1.562
1554.58   1.562
1556.25   1.576
1557.93   1.559
1559.61   1.557
1561.28   1.561
1562.96   1.552
1564.64   1.564
1566.31   1.571
1567.99   1.578
1569.66   1.600
1571.34   1.611
1573.02   1.633
1574.69   1.633
1576.37   1.633
1578.05   1.657
1579.72   1.673
1581.40   1.681
1583.08   1.716
1584.75   1.729
1586.43   1.779
1588.10   1.803
1589.78   1.809
1591.46   1.817
1593.13   1.830
1594.81   1.810
1596.49   1.798
1598.16   1.754
1599.84   1.727
1601.52   1.736
1603.19   1.727
1604.87   1.703
1606.54   1.688
1608.22   1.698
1609.90   1.716
1611.57   1.734
1613.25   1.740
1614.93   1.780
1616.60   1.822
1618.28   1.853
1619.95   1.838
1621.63   1.831
1623.31   1.785
1624.98   1.777
1626.66   1.737
1628.34   1.707
1630.01   1.671
1631.69   1.640
1633.37   1.610
1635.04   1.643
1636.72   1.602
1638.39   1.618
1640.07   1.580
1641.75   1.586
1643.42   1.607
1645.10   1.621
1646.78   1.592
1648.45   1.627
1650.13   1.571
1651.81   1.601
1653.48   1.594
1655.16   1.607
1656.83   1.589
1658.51   1.588
1660.19   1.623
1661.86   1.635
1663.54   1.645
1665.22   1.689
1666.89   1.709
1668.57   1.720
1670.24   1.737
1671.92   1.725
1673.60   1.733
1675.27   1.725
1676.95   1.682
1678.63   1.650
1680.30   1.670
1681.98   1.718
1683.66   1.672
1685.33   1.717
1687.01   1.705
1688.68   1.748
1690.36   1.771
1692.04   1.769
1693.71   1.712
1695.39   1.718
1697.07   1.680
1698.74   1.711
1700.42   1.640
1702.10   1.612
1703.77   1.625
1705.45   1.650
1707.12   1.634
1708.80   1.610
1710.48   1.555
1712.15   1.592
1713.83   1.559
1715.51   1.503
1717.18   1.445
1718.86   1.445
1720.54   1.425
1722.21   1.441
1723.89   1.388
1725.56   1.440
1727.24   1.518
1728.92   1.622
1730.59   1.617
1732.27   1.683
1733.95   1.662
1735.62   1.703
1737.30   1.681
1738.97   1.609
1740.65   1.527
1742.33   1.504
1744.00   1.451
1745.68   1.488
1747.36   1.534
1749.03   1.501
1750.71   1.528
1752.39   1.598
1754.06   1.568
1755.74   1.552
1757.41   1.473
1759.09   1.344
1760.77   1.410
1762.44   1.354
1764.12   1.278
1765.80   1.286
1767.47   1.264
1769.15   1.268
1770.83   1.267
1772.50   1.199
1774.18   1.161
1775.85   1.143
1777.53   1.158
1779.21   1.279
1780.88   1.380
1782.56   1.391
1784.24   1.371
1785.91   1.371
1787.59   1.336
1789.26   1.322
1790.94   1.187
1792.62   1.092
1794.29   1.201
1795.97   1.220
1797.65   1.370
1799.32   1.499
1801.00   1.466
1802.68   1.571
1804.35   1.644
1806.03   1.601
1807.70   1.671
1809.38   1.541
1811.06   1.473
1812.73   1.563
1814.41   1.472
1816.09   1.435
1817.76   1.469
1819.44   1.409
1821.12   1.518
1822.79   1.562
1824.47   1.568
1826.14   1.671
1827.82   1.613
1829.50   1.595
1831.17   1.635
1832.85   1.594
1834.53   1.537
1836.20   1.530
1837.88   1.496
1839.55   1.545
1841.23   1.527
1842.91   1.495
1844.58   1.487
1846.26   1.518
1847.94   1.499
1849.61   1.453
1851.29   1.454
1852.97   1.468
1854.64   1.497
1856.32   1.488
1857.99   1.469
1859.67   1.476
1861.35   1.504
1863.02   1.540
1864.70   1.540
1866.38   1.547
1868.05   1.614
1869.73   1.639
1871.41   1.732
1873.08   1.739
1874.76   1.716
1876.43   1.753
1878.11   1.738
1879.79   1.681
1881.46   1.671
1883.14   1.567
1884.82   1.590
1886.49   1.577
1888.17   1.524
1889.85   1.491
1891.52   1.499
1893.20   1.538
1894.87   1.560
1896.55   1.537
1898.23   1.564
1899.90   1.554
1901.58   1.600
1903.26   1.628
1904.93   1.575
1906.61   1.613
1908.28   1.653
1909.96   1.646
1911.64   1.636
1913.31   1.599
1914.99   1.559
1916.67   1.590
1918.34   1.616
1920.02   1.666
1921.70   1.717
1923.37   1.761
1925.05   1.887
1926.72   1.924
1928.40   1.948
1931.06   1.455
1933.72   1.522
1936.39   1.548
1939.05   1.616
1941.71   1.677
1944.37   1.668
1947.04   1.650
1949.70   1.709
1952.36   1.701
1955.03   1.684
1957.69   1.633
1960.35   1.574
1963.01   1.628
1965.68   1.621
1968.34   1.557
1971.00   1.580
1973.66   1.611
1976.33   1.634
1978.99   1.634
1981.65   1.612
1984.31   1.627
1986.98   1.635
1989.64   1.599
1992.30   1.511
1994.97   1.492
1997.63   1.519
2000.29   1.455
2002.95   1.471
2005.62   1.492
2008.28   1.475
2010.94   1.489
2013.60   1.528
2016.27   1.515
2018.93   1.568
2021.59   1.567
2024.25   1.487
2026.92   1.512
2029.58   1.486
2032.24   1.484
2034.91   1.472
2037.57   1.435
2040.23   1.451
2042.89   1.478
2045.56   1.470
2048.22   1.575
2050.88   1.513
2053.54   1.480
2056.21   1.494
2058.87   1.479
2061.53   1.476
2064.19   1.492
2066.86   1.419
2069.52   1.444
2072.18   1.485
2074.85   1.473
2077.51   1.453
2080.17   1.431
2082.83   1.384
2085.50   1.355
2088.16   1.318
2090.82   1.296
2093.48   1.306
2096.15   1.300
2098.81   1.307
2101.47   1.368
2104.13   1.356
2106.80   1.384
2109.46   1.398
2112.12   1.397
2114.79   1.429
2117.45   1.441
2120.11   1.442
2122.77   1.425
2125.44   1.394
2128.10   1.384
2130.76   1.337
2133.42   1.302
2136.09   1.319
2138.75   1.273
2141.41   1.340
2144.07   1.351
2146.74   1.328
2149.40   1.344
2152.06   1.325
2154.73   1.315
2157.39   1.286
2160.05   1.308
2162.71   1.284
2165.38   1.298
2168.04   1.335
2170.70   1.328
2173.36   1.321
2176.03   1.365
2178.69   1.345
2181.35   1.372
2184.01   1.384
2186.68   1.379
2189.34   1.415
2192.00   1.425
2194.67   1.403
2197.33   1.359
2199.99   1.381
2202.65   1.369
2205.32   1.343
2207.98   1.339
2210.64   1.315
2213.30   1.342
2215.97   1.398
2218.63   1.385
2221.29   1.403
2223.95   1.425
2226.62   1.428
2229.28   1.446
2231.94   1.423
2234.61   1.378
2237.27   1.392
2239.93   1.406
2242.59   1.361
2245.26   1.368
2247.92   1.378
2250.58   1.373
2253.24   1.364
2255.91   1.362
2258.57   1.412
2261.23   1.452
2263.90   1.434
2266.56   1.432
2269.22   1.421
2271.88   1.437
2274.55   1.419
2277.21   1.382
2279.87   1.392
2282.53   1.438
2285.20   1.435
2287.86   1.462
2290.52   1.476
2293.18   1.472
2295.85   1.485
2298.51   1.461
2301.17   1.409
2303.83   1.398
2306.50   1.391
2309.16   1.374
2311.82   1.383
2314.49   1.346
2317.15   1.353
2319.81   1.365
2322.47   1.378
2325.14   1.369
2327.80   1.394
2330.46   1.426
2333.12   1.415
2335.79   1.400
2338.45   1.373
2341.11   1.376
2343.77   1.400
2346.44   1.394
2349.10   1.363
2351.76   1.392
2354.43   1.393
2357.09   1.423
2359.75   1.409
2362.41   1.391
2365.08   1.372
2367.74   1.425
2370.40   1.426
2373.06   1.434
2375.73   1.449
2378.39   1.442
2381.05   1.452
2383.71   1.494
2386.38   1.471
2389.04   1.503
2391.70   1.506
2394.37   1.529
2397.03   1.537
2399.69   1.533
2402.35   1.483
2405.02   1.439
2407.68   1.387
2410.34   1.417
2413.00   1.411
2415.67   1.441
2418.33   1.500
2420.99   1.509
2423.66   1.551
2426.32   1.607
2428.98   1.607
2431.64   1.581
2434.31   1.585
2436.97   1.564
2439.63   1.592
2442.29   1.609
2444.96   1.583
2447.62   1.584
2450.28   1.582
2452.94   1.549
2455.61   1.544
2458.27   1.550
2460.93   1.531
2463.59   1.524
2466.26   1.539
2468.92   1.555
2471.58   1.588
2474.25   1.611
2476.91   1.567
2479.57   1.552
2482.23   1.544
2484.90   1.527
2487.56   1.519
2490.22   1.499
2492.88   1.450
2495.55   1.533
2498.21   1.546
2500.87   1.560
2503.54   1.512
2506.20   1.493
2508.86   1.410
2511.52   1.389
2514.19   1.324
2516.85   1.326
2519.51   1.281
2522.17   1.357
2524.84   1.305
2527.50   1.418
2530.16   1.452
2532.82   1.402
2535.49   1.406
2538.15   1.436
2540.81   1.450
2543.48   1.561
2546.14   1.633
2548.80   1.546
2551.46   1.624
2554.13   1.567
2556.79   1.521
2559.45   1.507
2562.11   1.467
2564.78   1.389
2567.44   1.532
2570.10   1.455
2572.76   1.542
2575.43   1.626
2578.09   1.495
2580.75   1.516
2583.42   1.562
2586.08   1.396
2588.74   1.387
2591.40   1.284
2594.07   1.151
2596.73   1.252
2599.39   1.238
2602.05   1.171
2604.72   1.297
2607.38   1.249
2610.04   1.318
2612.70   1.307
2615.37   1.198
2618.03   1.171
2620.69   1.193
2623.35   1.074
2626.02   1.085
2628.68   1.006
2631.34   1.015
2634.01   1.102
2636.67   1.112
2639.33   1.093
2641.99   1.190
2644.66   1.214
2647.32   1.278
2649.98   1.292
2652.64   1.218
2655.31   1.156
2657.97   1.090
2660.63   1.024
2663.30   0.9935
2665.96   0.8558
2668.62   0.8489
2671.28   0.8167
2673.95   0.7807
2676.61   0.7316
2679.27   0.6871
2681.93   0.6859
2684.60   0.6935
2687.26   0.6734
2689.92   0.7125
2692.58   0.6829
2695.25   0.6679
2697.91   0.6545
2700.57   0.6464
2703.24   0.6716
2705.90   0.6669
2708.56   0.6441
2711.22   0.6518
2713.89   0.6514
2716.55   0.6423
2719.21   0.6374
2721.87   0.6157
2724.54   0.6088
2727.20   0.6014
2729.86   0.6087
2732.52   0.6283
2735.19   0.6312
2737.85   0.6281
2740.51   0.6384
2743.18   0.6592
2745.84   0.6561
2748.50   0.6510
2751.16   0.6376
2753.83   0.6430
2756.49   0.6660
2759.15   0.6649
2761.81   0.6296
2764.48   0.6177
2767.14   0.6073
2769.80   0.6018
2772.46   0.5874
2775.13   0.5618
2777.79   0.5638
2780.45   0.5671
2783.12   0.5619
2785.78   0.5658
2788.44   0.5508
2791.10   0.5453
2793.77   0.5303
2796.43   0.5143
2799.09   0.5226
2801.75   0.5231
2804.42   0.4976
2807.08   0.5184
2809.74   0.5129
2812.40   0.5198
2815.07   0.5209
2817.73   0.5040
2820.39   0.5035
2823.06   0.5177
2825.72   0.4918
2828.38   0.5063
2831.04   0.5250
2833.71   0.5059
2836.37   0.4999
2839.03   0.5086
2841.69   0.5028
2844.36   0.5177
2847.02   0.5359
2849.68   0.5085
2852.34   0.5368
2855.01   0.5342
2857.67   0.5135
2860.33   0.5072
2863.00   0.5051
2865.66   0.4779
2868.32   0.4920
2870.98   0.4735
2873.65   0.4997
2876.31   0.5019
2878.97   0.5071
2881.63   0.5073
2884.30   0.5035
2886.96   0.4933
2889.62   0.4907
2892.28   0.4733
2894.95   0.4860
2897.61   0.4997
2900.27   0.4804
2902.94   0.4929
2905.60   0.4879
2908.26   0.4903
2910.92   0.4989
2913.59   0.4876
2916.25   0.4707
2918.91   0.4795
2921.57   0.4663
2924.24   0.4876
2926.90   0.5006
2929.56   0.4979
2932.22   0.4952
2934.89   0.5027
2937.55   0.5039
2940.21   0.5115
2942.88   0.5089
2945.54   0.5046
2948.20   0.5204
2950.86   0.5181
2953.53   0.5185
2956.19   0.5513
2958.85   0.5518
2961.51   0.5378
2964.18   0.5371
2966.84   0.5162
2969.50   0.5382
2972.16   0.5195
2974.83   0.4920
2977.49   0.5360
2980.15   0.5481
2982.82   0.5670
2985.48   0.5933
2988.14   0.5993
2990.80   0.6521
2993.47   0.6751
2996.13   0.6499
2998.79   0.7032
3001.45   0.7279
3004.12   0.7598
3006.78   0.8058
3009.44   0.8328
3012.10   0.9064
3014.77   0.9762
3017.43   0.9979
3020.09   1.044
3022.76   1.090
3025.42   1.116
3028.08   1.173
3030.74   1.178
3033.41   1.232
3036.07   1.241
3038.73   1.241
3041.39   1.214
3044.06   1.164
3046.72   1.071
3049.38   1.009
3052.04   0.9272
3054.71   0.9180
3057.37   0.9034
3060.03   0.9132
3062.70   0.9474
3065.36   1.028
3068.02   1.198
3070.68   1.241
3073.35   1.348
3076.01   1.399
3078.67   1.423
3081.33   1.471
3084.00   1.501
3086.66   1.468
3089.32   1.506
3091.98   1.506
3094.65   1.543
3097.31   1.583
3099.97   1.635
3102.64   1.679
3105.30   1.657
3107.96   1.664
3110.62   1.645
3113.29   1.628
3115.95   1.630
3118.61   1.607
3121.27   1.578
3123.94   1.574
3126.60   1.580
3129.26   1.549
3131.92   1.548
3134.59   1.546
3137.25   1.543
3139.91   1.558
3142.58   1.570
3145.24   1.585
3147.90   1.592
3150.56   1.588
3153.23   1.577
3155.89   1.570
3158.55   1.552
3161.21   1.538
3163.88   1.530
3166.54   1.533
3169.20   1.522
3171.86   1.523
3174.53   1.530
3177.19   1.528
3179.85   1.518
3182.52   1.515
3185.18   1.505
3187.84   1.509
3190.50   1.509
3193.17   1.504
3195.83   1.514
3198.49   1.507
3201.15   1.489
3203.82   1.495
3206.48   1.503
3209.14   1.519
3211.80   1.524
3214.47   1.522
3217.13   1.534
3219.79   1.535
3222.46   1.537
3225.12   1.542
3227.78   1.546
3230.44   1.547
3233.11   1.536
3235.77   1.529
3238.43   1.511
3240.04   1.517
3242.79   1.518
3245.54   1.522
3248.28   1.499
3251.03   1.513
3253.77   1.523
3256.52   1.503
3259.27   1.530
3262.01   1.504
3264.76   1.471
3267.50   1.439
3270.25   1.492
3273.00   1.517
3275.74   1.543
3278.49   1.539
3281.23   1.502
3283.98   1.485
3286.73   1.490
3289.47   1.494
3292.22   1.523
3294.96   1.488
3297.71   1.457
3300.46   1.516
3303.20   1.480
3305.95   1.530
3308.69   1.534
3311.44   1.451
3314.19   1.450
3316.93   1.494
3319.68   1.470
3322.42   1.490
3325.17   1.523
3327.92   1.514
3330.66   1.531
3333.41   1.500
3336.15   1.497
3338.90   1.504
3341.65   1.488
3344.39   1.506
3347.14   1.498
3349.88   1.510
3352.63   1.460
3355.38   1.457
3358.12   1.467
3360.87   1.470
3363.61   1.505
3366.36   1.474
3369.11   1.489
3371.85   1.501
3374.60   1.481
3377.34   1.447
3380.09   1.438
3382.84   1.476
3385.58   1.512
3388.33   1.449
3391.07   1.462
3393.82   1.471
3396.57   1.479
3399.31   1.422
3402.06   1.437
3404.80   1.445
3407.55   1.484
3410.30   1.498
3413.04   1.443
3415.79   1.469
3418.53   1.487
3421.28   1.468
3424.03   1.449
3426.77   1.422
3429.52   1.451
3432.26   1.452
3435.01   1.420
3437.76   1.394
3440.50   1.403
3443.25   1.424
3445.99   1.439
3448.74   1.452
3451.49   1.455
3454.23   1.475
3456.98   1.464
3459.72   1.416
3462.47   1.453
3465.22   1.436
3467.96   1.421
3470.71   1.411
3473.45   1.426
3476.20   1.442
3478.95   1.465
3481.69   1.486
3484.44   1.441
3487.18   1.429
3489.93   1.398
3492.68   1.424
3495.42   1.427
3498.17   1.414
3500.91   1.398
3503.66   1.396
3506.41   1.393
3509.15   1.395
3511.90   1.428
3514.64   1.451
3517.39   1.473
3520.14   1.447
3522.88   1.438
3525.63   1.414
3528.37   1.408
3531.12   1.411
3533.87   1.419
3536.61   1.423
3539.36   1.463
3542.10   1.430
3544.85   1.404
3547.60   1.398
3550.34   1.397
3553.09   1.403
3555.83   1.401
3558.58   1.389
3561.33   1.365
3564.07   1.381
3566.82   1.394
3569.56   1.399
3572.31   1.400
3575.06   1.406
3577.80   1.417
3580.55   1.396
3583.29   1.383
3586.04   1.382
3588.79   1.366
3591.53   1.406
3594.28   1.420
3597.02   1.351
3599.77   1.374
3602.52   1.406
3605.26   1.406
3608.01   1.382
3610.75   1.338
3613.50   1.348
3616.25   1.357
3618.99   1.387
3621.74   1.391
3624.48   1.405
3627.23   1.368
3629.98   1.349
3632.72   1.360
3635.47   1.368
3638.21   1.389
3640.96   1.361
3643.71   1.363
3646.45   1.369
3649.20   1.379
3651.94   1.385
3654.69   1.363
3657.44   1.344
3660.18   1.337
3662.93   1.359
3665.67   1.354
3668.42   1.330
3671.17   1.382
3673.91   1.368
3676.66   1.360
3679.40   1.385
3682.15   1.386
3684.90   1.375
3687.64   1.358
3690.39   1.341
3693.13   1.346
3695.88   1.307
3698.63   1.320
3701.37   1.306
3704.12   1.333
3706.86   1.321
3709.61   1.314
3712.36   1.369
3715.10   1.401
3717.85   1.342
3720.59   1.290
3723.34   1.348
3726.09   1.431
3728.83   1.390
3731.58   1.289
3734.32   1.286
3737.07   1.439
3739.82   1.575
3742.56   1.567
3745.31   1.413
3748.05   1.282
3750.80   1.361
3753.55   1.537
3756.29   1.692
3759.04   1.743
3761.78   1.698
3764.53   1.552
3767.28   1.358
3770.02   1.282
3772.77   1.446
3775.51   1.667
3778.26   1.819
3781.01   1.912
3783.75   1.954
3786.50   1.923
3789.24   1.763
3791.99   1.538
3794.74   1.327
3797.48   1.265
3800.23   1.407
3802.97   1.641
3805.72   1.830
3808.47   1.950
3811.21   2.012
3813.96   1.987
3816.70   1.890
3819.45   1.862
3822.20   1.902
3824.94   1.855
3827.69   1.688
3830.43   1.457
3833.18   1.288
3835.93   1.310
3838.67   1.507
3841.42   1.743
3844.16   1.921
3846.91   2.063
3849.66   2.117
3852.40   2.092
3855.15   2.091
3857.89   2.116
3860.64   2.130
3863.39   2.122
3866.13   2.102
3868.88   2.060
3871.62   2.022
3874.37   2.002
3877.12   1.923
3879.86   1.777
3882.61   1.576
3885.35   1.355
3888.10   1.271
3890.85   1.376
3893.59   1.596
3896.34   1.794
3899.08   1.951
3901.83   2.054
3904.58   2.109
3907.32   2.137
3910.07   2.144
3912.81   2.168
3915.56   2.151
3918.31   2.126
3921.05   2.114
3923.80   2.095
3926.54   2.082
3929.29   2.116
3932.04   2.121
3934.78   2.121
3937.53   2.138
3940.27   2.143
3943.02   2.157
3945.77   2.144
3948.51   2.109
3951.26   2.085
3954.00   2.034
3956.75   1.949
3959.50   1.818
3962.24   1.631
3964.99   1.409
3967.73   1.240
3970.48   1.264
3973.23   1.438
3975.97   1.642
3978.72   1.789
3981.46   1.887
